Frequency (Hz)	Level (dB)
43.066406	-103.068672
86.132813	-102.625595
129.199219	-102.277115
172.265625	-100.933479
215.332031	-100.040962
258.398438	-98.714920
301.464844	-96.691032
344.531250	-95.525856
387.597656	-92.701340
430.664063	-91.098846
473.730469	-87.805466
516.796875	-85.053787
559.863281	-82.719353
602.929688	-76.927528
645.996094	-72.898697
689.062500	-66.430092
732.128906	-57.371231
775.195313	-43.665691
818.261719	-30.601427
861.328125	-26.037174
904.394531	-26.051786
947.460938	-32.298664
990.527344	-43.810436
1033.593750	-59.581135
1076.660156	-68.601532
1119.726563	-70.743248
1162.792969	-65.640411
1205.859375	-49.902279
1248.925781	-36.877136
1291.992188	-30.631914
1335.058594	-29.871662
1378.125000	-34.349503
1421.191406	-45.194458
1464.257813	-62.281281
1507.324219	-69.726112
1550.390625	-70.285774
1593.457031	-62.506447
1636.523438	-48.702652
1679.589844	-35.056671
1722.656250	-27.247065
1765.722656	-25.389818
1808.789063	-28.714998
1851.855469	-37.956490
1894.921875	-55.444626
1937.988281	-66.107994
1981.054688	-70.925957
2024.121094	-67.799721
2067.187500	-56.321590
2110.253906	-39.544399
2153.320313	-30.748940
2196.386719	-27.518282
2239.453125	-29.836477
2282.519531	-37.588238
2325.585938	-53.192577
2368.652344	-65.943954
2411.718750	-70.234230
2454.785156	-67.210640
2497.851563	-57.474907
2540.917969	-41.468674
2583.984375	-30.425682
2627.050781	-26.379404
2670.117188	-27.191034
2713.183594	-34.233379
2756.250000	-46.335732
2799.316406	-61.780670
2842.382813	-70.637032
2885.449219	-73.411957
2928.515625	-68.425644
2971.582031	-54.586292
3014.648438	-41.140568
3057.714844	-35.652828
3100.781250	-35.418789
3143.847656	-41.096199
3186.914063	-52.992764
3229.980469	-68.229675
3273.046875	-76.322578
3316.113281	-75.051094
3359.179688	-68.200874
3402.246094	-52.899479
3445.312500	-41.236813
3488.378906	-33.684177
3531.445313	-32.956650
3574.511719	-36.428959
3617.578125	-48.192162
3660.644531	-61.587196
3703.710938	-71.701126
3746.777344	-78.591896
3789.843750	-82.386230
3832.910156	-89.935013
3875.976563	-89.995758
3919.042969	-95.558502
3962.109375	-96.422691
4005.175781	-99.798706
4048.242188	-101.919846
4091.308594	-103.635170
4134.375000	-106.212059
4177.441406	-107.476265
4220.507813	-108.540436
4263.574219	-110.868126
4306.640625	-111.987503
4349.707031	-112.663261
4392.773438	-114.918297
4435.839844	-114.443054
4478.906250	-119.770203
4521.972656	-115.997147
4565.039063	-117.860947
4608.105469	-119.068001
4651.171875	-119.541176
4694.238281	-120.508224
4737.304688	-120.207306
4780.371094	-122.340843
4823.437500	-121.437538
4866.503906	-122.294212
4909.570313	-121.601822
4952.636719	-122.282486
4995.703125	-123.841095
5038.769531	-121.958183
5081.835938	-122.998978
5124.902344	-123.542770
5167.968750	-122.983665
5211.035156	-122.834114
5254.101563	-124.109856
5297.167969	-123.131386
5340.234375	-123.036354
5383.300781	-123.018600
5426.367188	-123.589516
5469.433594	-124.387016
5512.500000	-124.504059
5555.566406	-124.057907
5598.632813	-122.646370
5641.699219	-123.088982
5684.765625	-124.572411
5727.832031	-125.714905
5770.898438	-125.538528
5813.964844	-125.012505
5857.031250	-124.941269
5900.097656	-124.177826
5943.164063	-125.458748
5986.230469	-124.460358
6029.296875	-124.563629
6072.363281	-124.654312
6115.429688	-125.178459
6158.496094	-125.259926
6201.562500	-124.945801
6244.628906	-124.562469
6287.695313	-124.383690
6330.761719	-124.248260
6373.828125	-124.465660
6416.894531	-125.068512
6459.960938	-125.259605
6503.027344	-124.414902
6546.093750	-124.510429
6589.160156	-124.116730
6632.226563	-124.817116
6675.292969	-124.886711
6718.359375	-124.963974
6761.425781	-125.244904
6804.492188	-125.042160
6847.558594	-125.429367
6890.625000	-125.174797
6933.691406	-125.278877
6976.757813	-124.685844
7019.824219	-124.296410
7062.890625	-124.013191
7105.957031	-125.171410
7149.023438	-124.579727
7192.089844	-124.580688
7235.156250	-123.722336
7278.222656	-124.081131
7321.289063	-124.266838
7364.355469	-123.772720
7407.421875	-125.075012
7450.488281	-124.623009
7493.554688	-123.704056
7536.621094	-123.389648
7579.687500	-124.292114
7622.753906	-124.287544
7665.820313	-123.389748
7708.886719	-123.626869
7751.953125	-124.544060
7795.019531	-125.550957
7838.085938	-124.588509
7881.152344	-124.398170
7924.218750	-124.952400
7967.285156	-124.962433
8010.351563	-124.241753
8053.417969	-123.066223
8096.484375	-124.098640
8139.550781	-124.676056
8182.617188	-124.773895
8225.683594	-124.946983
8268.750000	-124.837196
8311.816406	-124.504898
8354.882813	-123.719803
8397.949219	-125.104576
8441.015625	-125.660194
8484.082031	-125.295059
8527.148438	-126.437790
8570.214844	-126.288841
8613.281250	-124.877670
8656.347656	-124.247742
8699.414063	-123.774254
8742.480469	-123.561241
8785.546875	-124.424736
8828.613281	-123.713509
8871.679688	-124.027771
8914.746094	-125.189491
8957.812500	-125.144463
9000.878906	-124.635788
9043.945313	-125.085823
9087.011719	-125.238007
9130.078125	-124.940170
9173.144531	-124.203156
9216.210938	-124.528191
9259.277344	-125.642960
9302.343750	-126.271484
9345.410156	-125.001358
9388.476563	-123.531570
9431.542969	-123.291977
9474.609375	-124.302719
9517.675781	-125.825127
9560.742188	-125.592369
9603.808594	-125.191406
9646.875000	-125.212654
9689.941406	-125.068344
9733.007813	-125.547295
9776.074219	-126.163307
9819.140625	-124.717133
9862.207031	-124.074219
9905.273438	-124.465225
9948.339844	-123.322525
9991.406250	-123.718987
10034.472656	-124.028992
10077.539063	-124.333794
10120.605469	-124.196365
10163.671875	-124.574699
10206.738281	-124.701057
10249.804688	-125.286499
10292.871094	-125.283096
10335.937500	-125.507729
10379.003906	-124.353081
10422.070313	-124.665512
10465.136719	-125.957100
10508.203125	-125.389709
10551.269531	-123.280869
10594.335938	-123.805168
10637.402344	-123.970573
10680.468750	-124.666962
10723.535156	-124.227180
10766.601563	-124.322594
10809.667969	-124.875565
10852.734375	-124.109200
10895.800781	-123.763992
10938.867188	-125.525528
10981.933594	-125.509315
11025.000000	-125.322243
11068.066406	-124.765884
11111.132813	-124.225365
11154.199219	-123.663879
11197.265625	-123.511978
11240.332031	-124.501900
11283.398438	-125.207031
11326.464844	-126.146355
11369.531250	-125.647377
11412.597656	-125.460480
11455.664063	-125.745636
11498.730469	-124.871338
11541.796875	-124.782738
11584.863281	-124.252602
11627.929688	-123.600372
11670.996094	-123.665436
11714.062500	-124.236031
11757.128906	-124.760147
11800.195313	-124.552940
11843.261719	-124.537720
11886.328125	-123.838623
11929.394531	-124.850266
11972.460938	-125.229881
12015.527344	-124.848541
12058.593750	-124.538467
12101.660156	-124.663345
12144.726563	-124.764931
12187.792969	-124.204063
12230.859375	-124.618645
12273.925781	-126.114349
12316.992188	-125.494186
12360.058594	-124.806618
12403.125000	-124.099686
12446.191406	-124.551743
12489.257813	-125.226189
12532.324219	-125.531456
12575.390625	-124.252396
12618.457031	-124.119232
12661.523438	-125.225006
12704.589844	-125.417305
12747.656250	-124.657181
12790.722656	-125.018326
12833.789063	-125.932426
12876.855469	-125.728691
12919.921875	-125.030220
12962.988281	-124.720856
13006.054688	-125.179550
13049.121094	-125.704491
13092.187500	-125.038185
13135.253906	-124.579506
13178.320313	-124.288551
13221.386719	-123.552132
13264.453125	-123.442154
13307.519531	-124.068077
13350.585938	-124.814804
13393.652344	-125.009956
13436.718750	-125.884613
13479.785156	-125.037674
13522.851563	-123.310532
13565.917969	-123.317291
13608.984375	-124.365799
13652.050781	-125.543900
13695.117188	-124.392967
13738.183594	-123.736794
13781.250000	-124.571991
13824.316406	-124.424881
13867.382813	-124.207222
13910.449219	-124.178711
13953.515625	-124.113907
13996.582031	-124.074104
14039.648438	-123.976578
14082.714844	-124.864365
14125.781250	-125.592697
14168.847656	-124.818611
14211.914063	-124.080322
14254.980469	-124.988251
14298.046875	-124.887810
14341.113281	-125.199181
14384.179688	-124.925484
14427.246094	-123.859230
14470.312500	-123.660439
14513.378906	-124.623604
14556.445313	-123.961418
14599.511719	-124.233871
14642.578125	-124.855629
14685.644531	-123.723053
14728.710938	-124.010353
14771.777344	-124.699150
14814.843750	-125.176765
14857.910156	-125.911728
14900.976563	-125.128807
14944.042969	-124.666656
14987.109375	-125.297066
15030.175781	-125.654297
15073.242188	-125.471420
15116.308594	-124.696175
15159.375000	-124.851425
15202.441406	-124.763062
15245.507813	-124.855362
15288.574219	-124.860023
15331.640625	-124.412666
15374.707031	-124.805878
15417.773438	-126.709030
15460.839844	-125.963081
15503.906250	-124.597305
15546.972656	-125.123558
15590.039063	-125.030174
15633.105469	-124.102104
15676.171875	-124.969551
15719.238281	-125.840225
15762.304688	-125.091980
15805.371094	-124.870399
15848.437500	-123.390648
15891.503906	-123.262856
15934.570313	-122.486847
15977.636719	-122.956764
16020.703125	-124.437828
16063.769531	-125.547569
16106.835938	-125.502274
16149.902344	-124.730415
16192.968750	-123.930420
16236.035156	-123.081779
16279.101563	-123.015968
16322.167969	-123.695091
16365.234375	-124.423019
16408.300781	-123.726494
16451.367188	-123.593842
16494.433594	-124.733940
16537.500000	-124.497314
16580.566406	-124.175125
16623.632813	-124.940475
16666.699219	-125.671333
16709.765625	-125.111458
16752.832031	-124.030960
16795.898438	-123.061897
16838.964844	-123.440819
16882.031250	-125.754807
16925.097656	-125.369095
16968.164063	-123.733597
17011.230469	-123.716095
17054.296875	-125.338638
17097.363281	-125.245949
17140.429688	-125.728310
17183.496094	-125.115456
17226.562500	-123.063011
17269.628906	-122.872597
17312.695313	-123.965050
17355.761719	-123.234245
17398.828125	-123.859772
17441.894531	-124.438065
17484.960938	-124.396790
17528.027344	-124.181198
17571.093750	-124.659317
17614.160156	-124.713654
17657.226563	-125.845650
17700.292969	-126.003586
17743.359375	-126.070679
17786.425781	-125.572144
17829.492188	-125.570770
17872.558594	-125.237221
17915.625000	-124.271172
17958.691406	-124.335075
18001.757813	-125.344215
18044.824219	-125.871658
18087.890625	-125.693939
18130.957031	-125.296234
18174.023438	-124.897614
18217.089844	-125.027451
18260.156250	-126.141296
18303.222656	-126.661285
18346.289063	-125.898521
18389.355469	-125.808868
18432.421875	-125.493965
18475.488281	-124.989189
18518.554688	-125.550201
18561.621094	-124.743729
18604.687500	-124.592865
18647.753906	-124.666252
18690.820313	-123.986740
18733.886719	-124.405762
18776.953125	-125.010475
18820.019531	-125.653679
18863.085938	-125.316444
18906.152344	-124.828850
18949.218750	-124.467751
18992.285156	-123.846352
19035.351563	-123.764580
19078.417969	-123.759377
19121.484375	-124.395828
19164.550781	-124.464180
19207.617188	-124.587349
19250.683594	-125.247574
19293.750000	-125.067703
19336.816406	-125.238892
19379.882813	-125.059708
19422.949219	-123.869789
19466.015625	-123.576347
19509.082031	-124.166275
19552.148438	-124.198647
19595.214844	-125.740463
19638.281250	-125.848419
19681.347656	-125.286736
19724.414063	-124.448090
19767.480469	-124.508438
19810.546875	-125.721024
19853.613281	-124.910118
19896.679688	-125.017029
19939.746094	-124.571411
19982.812500	-124.219086
20025.878906	-124.327202
20068.945313	-125.435516
20112.011719	-125.904366
20155.078125	-125.667542
20198.144531	-124.995392
20241.210938	-123.663559
20284.277344	-125.059349
20327.343750	-126.255783
20370.410156	-125.781113
20413.476563	-125.168198
20456.542969	-125.087112
20499.609375	-124.167007
20542.675781	-124.821251
20585.742188	-124.455345
20628.808594	-124.213844
20671.875000	-124.468727
20714.941406	-124.664757
20758.007813	-124.244370
20801.074219	-125.847115
20844.140625	-125.955078
20887.207031	-125.275749
20930.273438	-125.443291
20973.339844	-125.058334
21016.406250	-123.920235
21059.472656	-124.372093
21102.539063	-124.857925
21145.605469	-124.594215
21188.671875	-124.684425
21231.738281	-125.728882
21274.804688	-125.603958
21317.871094	-124.861885
21360.937500	-125.086250
21404.003906	-125.182190
21447.070313	-126.165703
21490.136719	-124.230644
21533.203125	-123.771530
21576.269531	-124.480301
21619.335938	-125.261261
21662.402344	-125.489273
21705.468750	-124.910294
21748.535156	-125.434052
21791.601563	-124.166054
21834.667969	-124.432648
21877.734375	-123.698174
21920.800781	-123.763588
21963.867188	-125.439911
22006.933594	-125.236458
